#Magnetic Field (Oe),Voltage (V) 
-100.00, -0.063939 
-99.00, -0.063938 
-98.00, -0.063937 
-97.00, -0.063937 
-96.00, -0.063936 
-95.00, -0.063935 
-94.00, -0.063933 
-93.00, -0.063933 
-92.00, -0.063934 
-91.00, -0.063933 
-90.00, -0.063932 
-89.00, -0.063931 
-88.00, -0.063929 
-87.00, -0.063929 
-86.00, -0.063928 
-85.00, -0.063926 
-84.00, -0.063925 
-83.00, -0.063923 
-82.00, -0.063921 
-81.00, -0.063920 
-80.00, -0.063920 
-79.00, -0.063918 
-78.00, -0.063917 
-77.00, -0.063916 
-76.00, -0.063914 
-75.00, -0.063911 
-74.00, -0.063909 
-73.00, -0.063907 
-72.00, -0.063906 
-71.00, -0.063903 
-70.00, -0.063902 
-69.00, -0.063900 
-68.00, -0.063898 
-67.00, -0.063894 
-66.00, -0.063890 
-65.00, -0.063888 
-64.00, -0.063884 
-63.00, -0.063882 
-62.00, -0.063878 
-61.00, -0.063876 
-60.00, -0.063873 
-59.00, -0.063870 
-58.00, -0.063866 
-57.00, -0.063863 
-56.00, -0.063858 
-55.00, -0.063854 
-54.00, -0.063851 
-53.00, -0.063846 
-52.00, -0.063842 
-51.00, -0.063836 
-50.00, -0.063831 
-49.00, -0.063825 
-48.00, -0.063820 
-47.00, -0.063813 
-46.00, -0.063808 
-45.00, -0.063800 
-44.00, -0.063794 
-43.00, -0.063785 
-42.00, -0.063778 
-41.00, -0.063768 
-40.00, -0.063761 
-39.00, -0.063749 
-38.00, -0.063742 
-37.00, -0.063729 
-36.00, -0.063720 
-35.00, -0.063709 
-34.00, -0.063694 
-33.00, -0.063683 
-32.00, -0.063665 
-31.00, -0.063652 
-30.00, -0.063633 
-29.00, -0.063617 
-28.00, -0.063594 
-27.00, -0.063576 
-26.00, -0.063549 
-25.00, -0.063527 
-24.00, -0.063494 
-23.00, -0.063468 
-22.00, -0.063427 
-21.00, -0.063397 
-20.00, -0.063346 
-19.00, -0.063309 
-18.00, -0.063264 
-17.00, -0.063195 
-16.00, -0.063144 
-15.00, -0.063057 
-14.00, -0.062994 
-13.00, -0.062882 
-12.00, -0.062803 
-11.00, -0.062663 
-10.00, -0.062572 
-9.00, -0.062414 
-8.00, -0.062319 
-7.00, -0.062160 
-6.00, -0.062072 
-5.00, -0.061946 
-4.00, -0.061882 
-3.00, -0.061822 
-2.00, -0.061756 
-1.00, -0.061721 
-1.42E-14, -0.061677 
1.00, -0.061651 
2.00, -0.061620 
3.00, -0.061608 
4.00, -0.061584 
5.00, -0.061570 
6.00, -0.061551 
7.00, -0.061540 
8.00, -0.061526 
9.00, -0.061517 
10.00, -0.061505 
11.00, -0.061497 
12.00, -0.061490 
13.00, -0.061481 
14.00, -0.061474 
15.00, -0.061467 
16.00, -0.061462 
17.00, -0.061456 
18.00, -0.061452 
19.00, -0.061446 
20.00, -0.061443 
21.00, -0.061440 
22.00, -0.061437 
23.00, -0.061433 
24.00, -0.061431 
25.00, -0.061429 
26.00, -0.061427 
27.00, -0.061425 
28.00, -0.061423 
29.00, -0.061421 
30.00, -0.061419 
31.00, -0.061418 
32.00, -0.061416 
33.00, -0.061416 
34.00, -0.061414 
35.00, -0.061414 
36.00, -0.061412 
37.00, -0.061412 
38.00, -0.061411 
39.00, -0.061411 
40.00, -0.061410 
41.00, -0.061410 
42.00, -0.061409 
43.00, -0.061410 
44.00, -0.061410 
45.00, -0.061409 
46.00, -0.061409 
47.00, -0.061408 
48.00, -0.061407 
49.00, -0.061407 
50.00, -0.061406 
51.00, -0.061406 
52.00, -0.061405 
53.00, -0.061404 
54.00, -0.061404 
55.00, -0.061403 
56.00, -0.061403 
57.00, -0.061403 
58.00, -0.061403 
59.00, -0.061403 
60.00, -0.061402 
61.00, -0.061402 
62.00, -0.061401 
63.00, -0.061401 
64.00, -0.061400 
65.00, -0.061400 
66.00, -0.061400 
67.00, -0.061399 
68.00, -0.061399 
69.00, -0.061399 
70.00, -0.061398 
71.00, -0.061398 
72.00, -0.061399 
73.00, -0.061399 
74.00, -0.061398 
75.00, -0.061398 
76.00, -0.061397 
77.00, -0.061397 
78.00, -0.061397 
79.00, -0.061397 
80.00, -0.061396 
81.00, -0.061396 
82.00, -0.061395 
83.00, -0.061395 
84.00, -0.061395 
85.00, -0.061395 
86.00, -0.061395 
87.00, -0.061395 
88.00, -0.061395 
89.00, -0.061394 
90.00, -0.061394 
91.00, -0.061394 
92.00, -0.061393 
93.00, -0.061394 
94.00, -0.061393 
95.00, -0.061393 
96.00, -0.061393 
97.00, -0.061393 
98.00, -0.061393 
99.00, -0.061393 
100.00, -0.061393 
101.00, -0.061393 
101.00, -0.061393 
100.00, -0.061394 
99.00, -0.061395 
98.00, -0.061395 
97.00, -0.061395 
96.00, -0.061396 
95.00, -0.061396 
94.00, -0.061397 
93.00, -0.061397 
92.00, -0.061398 
91.00, -0.061399 
90.00, -0.061399 
89.00, -0.061400 
88.00, -0.061400 
87.00, -0.061401 
86.00, -0.061401 
85.00, -0.061402 
84.00, -0.061403 
83.00, -0.061403 
82.00, -0.061404 
81.00, -0.061405 
80.00, -0.061405 
79.00, -0.061406 
78.00, -0.061406 
77.00, -0.061407 
76.00, -0.061407 
75.00, -0.061408 
74.00, -0.061409 
73.00, -0.061410 
72.00, -0.061410 
71.00, -0.061411 
70.00, -0.061411 
69.00, -0.061412 
68.00, -0.061413 
67.00, -0.061413 
66.00, -0.061414 
65.00, -0.061415 
64.00, -0.061415 
63.00, -0.061416 
62.00, -0.061416 
61.00, -0.061417 
60.00, -0.061418 
59.00, -0.061419 
58.00, -0.061419 
57.00, -0.061420 
56.00, -0.061421 
55.00, -0.061422 
54.00, -0.061423 
53.00, -0.061424 
52.00, -0.061425 
51.00, -0.061426 
50.00, -0.061427 
49.00, -0.061428 
48.00, -0.061429 
47.00, -0.061430 
46.00, -0.061431 
45.00, -0.061432 
44.00, -0.061433 
43.00, -0.061434 
42.00, -0.061435 
41.00, -0.061436 
40.00, -0.061437 
39.00, -0.061438 
38.00, -0.061439 
37.00, -0.061440 
36.00, -0.061442 
35.00, -0.061443 
34.00, -0.061444 
33.00, -0.061446 
32.00, -0.061448 
31.00, -0.061449 
30.00, -0.061451 
29.00, -0.061453 
28.00, -0.061454 
27.00, -0.061456 
26.00, -0.061458 
25.00, -0.061460 
24.00, -0.061462 
23.00, -0.061464 
22.00, -0.061467 
21.00, -0.061469 
20.00, -0.061471 
19.00, -0.061474 
18.00, -0.061477 
17.00, -0.061479 
16.00, -0.061483 
15.00, -0.061485 
14.00, -0.061489 
13.00, -0.061492 
12.00, -0.061497 
11.00, -0.061500 
10.00, -0.061504 
9.00, -0.061510 
8.00, -0.061515 
7.00, -0.061523 
6.00, -0.061529 
5.00, -0.061538 
4.00, -0.061546 
3.00, -0.061556 
2.00, -0.061562 
1.00, -0.061575 
-1.42E-14, -0.061586 
-1.00, -0.061603 
-2.00, -0.061618 
-3.00, -0.061640 
-4.00, -0.061659 
-5.00, -0.061680 
-6.00, -0.061715 
-7.00, -0.061745 
-8.00, -0.061793 
-9.00, -0.061834 
-10.00, -0.061906 
-11.00, -0.061964 
-12.00, -0.062070 
-13.00, -0.062147 
-14.00, -0.062284 
-15.00, -0.062374 
-16.00, -0.062522 
-17.00, -0.062608 
-18.00, -0.062743 
-19.00, -0.062820 
-20.00, -0.062900 
-21.00, -0.063006 
-22.00, -0.063065 
-23.00, -0.063152 
-24.00, -0.063201 
-25.00, -0.063270 
-26.00, -0.063311 
-27.00, -0.063366 
-28.00, -0.063400 
-29.00, -0.063446 
-30.00, -0.063473 
-31.00, -0.063512 
-32.00, -0.063535 
-33.00, -0.063567 
-34.00, -0.063587 
-35.00, -0.063614 
-36.00, -0.063631 
-37.00, -0.063648 
-38.00, -0.063670 
-39.00, -0.063684 
-40.00, -0.063703 
-41.00, -0.063715 
-42.00, -0.063732 
-43.00, -0.063743 
-44.00, -0.063758 
-45.00, -0.063768 
-46.00, -0.063781 
-47.00, -0.063790 
-48.00, -0.063802 
-49.00, -0.063810 
-50.00, -0.063821 
-51.00, -0.063829 
-52.00, -0.063838 
-53.00, -0.063845 
-54.00, -0.063853 
-55.00, -0.063859 
-56.00, -0.063865 
-57.00, -0.063872 
-58.00, -0.063877 
-59.00, -0.063884 
-60.00, -0.063889 
-61.00, -0.063895 
-62.00, -0.063899 
-63.00, -0.063905 
-64.00, -0.063909 
-65.00, -0.063914 
-66.00, -0.063918 
-67.00, -0.063923 
-68.00, -0.063926 
-69.00, -0.063931 
-70.00, -0.063934 
-71.00, -0.063937 
-72.00, -0.063941 
-73.00, -0.063944 
-74.00, -0.063948 
-75.00, -0.063951 
-76.00, -0.063955 
-77.00, -0.063957 
-78.00, -0.063961 
-79.00, -0.063963 
-80.00, -0.063966 
-81.00, -0.063968 
-82.00, -0.063970 
-83.00, -0.063972 
-84.00, -0.063975 
-85.00, -0.063977 
-86.00, -0.063979 
-87.00, -0.063981 
-88.00, -0.063982 
-89.00, -0.063984 
-90.00, -0.063986 
-91.00, -0.063987 
-92.00, -0.063989 
-93.00, -0.063991 
-94.00, -0.063992 
-95.00, -0.063993 
-96.00, -0.063995 
-97.00, -0.063997 
-98.00, -0.063998 
-99.00, -0.063999 
-100.00, -0.064001 
